#   1 NUMBER                 Running object number
#   2 X_IMAGE                Object position along x                                    [pixel]
#   3 Y_IMAGE                Object position along y                                    [pixel]
#   4 ALPHA_SKY              Right ascension of barycenter (native)                     [deg]
#   5 DELTA_SKY              Declination of barycenter (native)                         [deg]
#   6 XWIN_IMAGE             Windowed position estimate along x                         [pixel]
#   7 YWIN_IMAGE             Windowed position estimate along y                         [pixel]
#   8 ERRAWIN_IMAGE          RMS windowed pos error along major axis                    [pixel]
#   9 ERRBWIN_IMAGE          RMS windowed pos error along minor axis                    [pixel]
#  10 ERRTHETAWIN_IMAGE      Windowed error ellipse pos angle (CCW/x)                   [deg]
#  11 FLAGS                  Extraction flags
#  12 FLUX_RADIUS            Fraction-of-light radii                                    [pixel]
#  13 FLUX_ISO               Isophotal flux                                             [count]
#  14 FLUXERR_ISO            RMS error for isophotal flux                               [count]
#  15 FLUX_AUTO              Flux within a Kron-like elliptical aperture                [count]
#  16 FLUXERR_AUTO           RMS error for AUTO flux                                    [count]
#  17 MAG_AUTO               Kron-like elliptical aperture magnitude                    [mag]
#  18 MAGERR_AUTO            RMS error for AUTO magnitude                               [mag]
#  19 FLUX_MAX               Peak flux above background                                 [count]
#  20 ISOAREAF_IMAGE         Isophotal area (filtered) above Detection threshold        [pixel**2]
#  21 ISOAREAF_WORLD         Isophotal area (filtered) above Detection threshold        [deg**2]
#  22 ELONGATION             A_IMAGE/B_IMAGE
         1    844.359    434.109 100.2910553  +9.4697032    845.428    428.986   0.0016   0.0016 -89.0   3      6.334      8545557     12811.09      5030140     25148.38   8.2460   0.0054     530815.6      8085 0.0006238426    1.562
         2    926.403    493.260 100.3013814  +9.4623269    926.130    492.814   0.0001   0.0001  42.9   7      4.980 1.451282e+08     15277.67 1.379576e+08     10755.87   4.6506   0.0001      1043586     11498 0.0008871913    1.527
         3    868.621     87.703 100.2950454  +9.5130007    868.981     88.247   0.0005   0.0005  84.6  18      1.805      1687773     5936.371      1806055     11282.74   9.3582   0.0068     358059.9      1736 0.0001339506    2.445
         4    824.381     41.622 100.2893902  +9.5186384    824.420     41.680   0.0001   0.0001  -0.2   2      0.949      2445914     2919.919      2354658     1779.543   9.0702   0.0008     503292.4       420 3.240741e-05    1.676
         5    835.545     51.657 100.2908246  +9.5174165    835.552     51.656   0.0001   0.0001  -0.0   2      1.032      4835000      3587.49      4674093     1927.399   8.3258   0.0004     804313.6       634 4.891975e-05    1.835
         6    287.085     29.306 100.2187420  +9.5191253    287.109     29.286   0.0001   0.0001  89.8   0      0.910      1867840     1779.543      1828299      1094.39   9.3449   0.0007     534860.9       156 1.203704e-05    1.067
         7     35.369     24.882 100.1853310  +9.5195156     35.382     24.961   0.0001   0.0001  -0.1   0      0.836      1423676       1527.9      1396500     997.3421   9.6374   0.0008     418107.4       115 8.873457e-06    1.081
         8    806.948     17.857 100.2871619  +9.5215485    808.116     19.477   0.1955   0.1955 -23.3   3      4.374     6874.336     668.2784     22301.68     2584.307  14.1292   0.1258     546.2891        22 1.697531e-06    2.222
         9    813.876      8.434 100.2880866  +9.5227352    810.118     12.496   0.2091   0.2091   0.1  18      4.084     10759.01     854.8647     19686.22     2014.935  14.2646   0.1112     485.2656        36 2.777778e-06    3.162
        10    877.773     13.191 100.2964237  +9.5223040    878.442     12.535   0.1898   0.1898 -77.3  18      3.500     7334.547     697.9941     16434.45     2413.721  14.4606   0.1595     606.8359        24 1.851852e-06    1.842
        11   1171.949     11.431 100.3346245  +9.5232353   1171.984     11.416   0.0018   0.0017 -90.0   0      0.859     114979.5     767.2645     116282.1       878.29  12.3362   0.0082     33955.11        29 2.237654e-06    1.042
        12   1007.948      2.728 100.3134096  +9.5239382   1007.846      3.188   0.0709   0.0643   0.0  27      2.748     23481.08     1017.492     27160.19     1534.529  13.9152   0.0614     1542.508        51 3.935185e-06    1.498
        13   1016.912      6.631 100.3145610  +9.5234716   1016.964      6.723   0.0003   0.0003  89.9  19      0.865     626432.2     1305.827     614346.3     1046.991  10.5290   0.0019     197852.5        84 6.481482e-06    1.071
        14   1023.253      5.818 100.3153875  +9.5235891   1023.261      5.874   0.0007   0.0007  -0.5  19      0.870     305333.6      1094.39     301237.5     987.1127  11.3027   0.0036     91746.89        59 4.552469e-06    1.086
        15    769.909      8.013 100.2823328  +9.5226777    769.966      8.012   0.0008   0.0008  -0.7   0      0.830     222962.2     842.9079     222821.9     866.6564  11.6301   0.0042     85319.17        35 2.700617e-06    1.026
        16    128.857      6.777 100.1976740  +9.5217104    128.933      6.855   0.0007   0.0007  89.5  16      0.874       303882     997.3421     302489.8     923.3594  11.2982   0.0033     105111.1        49 3.780864e-06    1.042
        17   1952.364      7.778 100.4336796  +9.5243017   1952.359      7.854   0.0261   0.0238  -0.6   0      0.792     7049.852     493.5564     6605.125     712.3872  15.4503   0.1171     2235.203        12 9.259259e-07    1.190
        18   1465.682      8.021 100.3723484  +9.5242123   1465.569      8.040   0.0342   0.0314  -0.0   0      0.850     5593.281     450.5532     6215.094     697.9941  15.5164   0.1220     1833.492        10  7.71605e-07    1.128
        19   1447.478      5.934 100.3700380  +9.5244535   1447.446      5.975   0.0158   0.0145  -0.0  16      0.850     13166.91     551.8128      12944.2     753.9198  14.7198   0.0633     3705.555        15 1.157407e-06    1.033
        20   1108.887      7.122 100.3264885  +9.5236333   1108.973      7.068   0.0433   0.0430 -88.3   0      0.771     3314.062     402.9871      3625.68     621.0448  16.1015   0.1860     1461.047         8 6.172839e-07    1.184
        21    184.985      4.916 100.2051261  +9.5219726    184.999      4.929   0.0083   0.0083  90.0  16      0.875     23107.68     652.9137     23901.38     866.6564  14.0539   0.0394     8696.203        21  1.62037e-06    1.017
        22   1691.916      1.760 100.4010942  +9.5252161   1692.030      1.225   0.0002   0.0002  -0.3  24      0.823     633661.2     1085.076     622473.5     740.3345  10.5147   0.0013     300382.2        58 4.475309e-06    1.355
        23    638.753      4.101 100.2651241  +9.5228435    638.806      4.112   0.0303   0.0302  -0.0  16      1.067     7779.977     493.5564     10418.25     976.7761  14.9555   0.1018     3039.453        12 9.259259e-07    1.158
        24    615.825      5.406 100.2621076  +9.5226300    615.939      5.362   0.0978   0.0970  90.0   0      1.051     2050.562     318.5893     3126.203     683.2978  16.2625   0.2374     774.2344         5 3.858025e-07    1.588
        25    492.400      3.497 100.2458405  +9.5225978    492.347      3.517   0.0464   0.0463 -90.0  16      1.083      5601.32     493.5564     7649.406     889.7714  15.2909   0.1263     1181.617        12 9.259259e-07    1.018
        26   1044.120      2.868 100.3181080  +9.5240108   1043.988      2.979   0.0821   0.0821   0.1  16      1.054     2450.312      348.997     3411.422     668.2784  16.1677   0.2127     1126.859         6  4.62963e-07    1.297
        27   1758.098      1.968 100.4094289  +9.5251979   1758.117      1.922   0.0298   0.0293  -3.1  24      0.780     4876.547     427.4323     5545.727     604.4806  15.6401   0.1184     2247.141         9 6.944445e-07    1.081
        28    166.398      1.937 100.2026447  +9.5223170    166.439      1.917   0.0143   0.0131  -0.1  24      0.849     14238.59     493.5564     14593.27     668.2784  14.5896   0.0497     4089.523        12 9.259259e-07    1.235
        29   2037.724   2024.118 100.4446629  +9.2707992   2037.818   2024.085   0.0052   0.0052  -0.0   0      1.139     64642.48     818.4706     65668.51     997.3421  12.9566   0.0165     14628.77        33 2.546296e-06    1.087
        30   1547.395   2042.717 100.3805700  +9.2697036   1547.627   2042.083   0.1163   0.1076  -0.0  24      5.886     42234.49     1445.988     80175.02     3553.377  12.7399   0.0481     1226.453       103 7.947531e-06    1.488
        31   1009.189   2047.656 100.3108561  +9.2688223   1008.120   2047.170   0.2698   0.2267   0.0  24      2.960     2270.766      348.997     7312.516      1139.82  15.3398   0.1693     799.5469         6  4.62963e-07    2.704
        32    973.229   2047.588 100.3062376  +9.2687817    973.214   2047.418   0.1844   0.1560   0.0  24      1.768     1938.422     318.5893     4270.242     830.7791  15.9239   0.2113     488.4766         5 3.858025e-07    1.697
        33    915.196   2047.368 100.2987966  +9.2687258    915.293   2047.716   0.0124   0.0112   0.4  24      0.925     16716.09     513.7097     17738.36     697.9941  14.3777   0.0427     4933.867        13 1.003086e-06    1.467
        34   2028.254   2023.682 100.4434134  +9.2708897   2028.539   2024.214   0.0079   0.0079  -0.9   0      1.360     59186.91     889.7714     59487.31     1174.899  13.0639   0.0214     11290.69        39 3.009259e-06    1.532
        35   1785.672   2024.040 100.4115859  +9.2716024   1785.760   2023.914   0.0439   0.0437   0.0   0      1.049     6005.469     472.5442     6562.797     901.1065  15.4573   0.1491     1683.773        11 8.487654e-07    1.224
        36     83.896   2023.336 100.1942420  +9.2708628     84.010   2023.275   0.0390   0.0389 -90.0   0      1.109      7370.32     533.1017     8538.133     1112.784  15.1716   0.1415      2158.75        14 1.080247e-06    1.114
        37   1518.091   2022.789 100.3766224  +9.2721047   1518.351   2022.860   0.1547   0.1547  24.8   0      1.921      3196.93     402.9871      6838.68     1225.637  15.4126   0.1946     970.8672         8 6.172839e-07    1.248
        38    416.299   2022.306 100.2355375  +9.2711422    416.285   2022.304   0.0254   0.0253  89.2   0      1.002     9672.211     513.7097     11164.53     866.6564  14.8804   0.0843     2379.203        13 1.003086e-06    1.171
        39      2.011   2020.948 100.1841835  +9.2711998      2.119   2020.852   0.1389   0.1288  90.0  24      1.538     1979.461     318.5893      4373.43     818.4706  15.8979   0.2032     967.8438         5 3.858025e-07    1.036
        40   1572.143   2019.888 100.3836484  +9.2724145   1572.234   2020.107   0.1626   0.1626 -50.5   0      1.908     2608.672      348.997     5751.383     1157.492  15.6006   0.2186     1092.117         6  4.62963e-07    1.298
        41     54.071   2019.700 100.1905733  +9.2713317     54.184   2019.755   0.1082   0.1082 -85.9   0      1.410     3391.438     427.4323     4718.578     697.9941  15.8155   0.1606     975.1875         9 6.944445e-07    1.626
        42     32.150   2018.872 100.1878807  +9.2714461     32.249   2018.955   0.0064   0.0064  -0.0   0      0.982     39465.48     683.2978     39668.52     912.3008  13.5039   0.0250     11128.51        23 1.774691e-06    1.144
        43   1124.002   2017.936 100.3255330  +9.2725729   1124.067   2017.906   0.0067   0.0066 -89.4   0      0.930     32919.39     668.2784      33415.2     866.6564  13.6901   0.0282     11014.59        22 1.697531e-06    1.048
        44    171.435   2018.959 100.2050471  +9.2714136    171.229   2018.880   0.0986   0.0986   0.1   0      1.215      2175.93      348.997     3862.758     569.9098  16.0328   0.1602     903.6562         6  4.62963e-07    1.559
        45   1907.118   2017.685 100.4274477  +9.2720335   1907.181   2017.737   0.0549   0.0543 -89.5   0      0.919     3613.656     376.9599     4233.453     604.4806  15.9333   0.1551     1296.172         7 5.401234e-07    1.153
        46   2022.107   2014.830 100.4425124  +9.2719563   2022.163   2014.816   0.0052   0.0052 -89.8   0      1.075      56411.9     726.4952      57930.4     912.3008  13.0927   0.0171     13638.93        26 2.006173e-06    1.161
        47   1798.292   2016.026 100.4131712  +9.2725247   1798.140   2015.997   0.0204   0.0189  -1.8   0      0.658     4836.961     427.4323      5521.75     652.9137  15.6448   0.1284      2813.32         9 6.944445e-07    1.292
        48    287.998   2012.467 100.2195118  +9.2722732    287.978   2012.288   0.0629   0.0588 -89.9   0      0.833     2457.906      348.997     3088.547     569.9098  16.2756   0.2004     1150.133         6  4.62963e-07    1.492
        49    445.109   2010.872 100.2391428  +9.2725978    445.124   2010.952   0.0501   0.0499  -0.2   0      0.947     3857.156     402.9871     4846.586     621.0448  15.7864   0.1392     1616.688         8 6.172839e-07    1.199
        50     98.290   2010.674 100.1960164  +9.2724610     98.252   2010.722   0.0341   0.0341 -89.7   0      1.025     8047.789     493.5564     8634.031     740.3345  15.1595   0.0931     1975.875        12 9.259259e-07    1.588
        51   1036.734   2006.101 100.3142705  +9.2739247   1036.879   2006.063   0.0006   0.0006  -0.4   0      0.916     350123.2      1139.82     344968.1     1007.468  11.1556   0.0032     118139.3        64 4.938272e-06    1.051
        52    119.095   2008.338 100.1985816  +9.2727529    119.386   2008.481   0.1147   0.1147  85.2   0      1.678     3465.008     427.4323     6501.781     1200.536  15.4674   0.2005     860.9219         9 6.944445e-07    1.505
        53   1660.603   2007.977 100.3951080  +9.2737372   1660.521   2007.957   0.0292   0.0287   0.0   0      1.004     9416.281     513.7097     9477.781     901.1065  15.0582   0.1033     2245.219        13 1.003086e-06    1.401
        54    521.020   2007.624 100.2486781  +9.2730836    521.049   2007.753   0.0423   0.0423 -90.0   0      1.192     7297.172     533.1017     9023.125     976.7761  15.1116   0.1176     2352.312        14 1.080247e-06    1.109
        55   1938.245   2006.323 100.4314222  +9.2732742   1938.325   2006.321   0.0096   0.0096   7.1   0      0.976     27660.41     637.1785      27621.3     854.8647  13.8969   0.0336     5679.719        20  1.54321e-06    1.171
        56    327.118   2006.793 100.2243843  +9.2730089    327.203   2006.929   0.0145   0.0143  -0.3   0      0.895     14920.49     569.9098     14431.43     818.4706  14.6017   0.0616     4585.797        16 1.234568e-06    1.124
        57     85.433   2007.307 100.1944332  +9.2728899     85.422   2007.330   0.0580   0.0572   0.5   0      0.875     3071.289     318.5893     4029.289     604.4806  15.9869   0.1629     1100.109         5 3.858025e-07    1.499
        58    924.252   2005.473 100.2998530  +9.2738687    924.351   2005.470   0.0381   0.0377  89.9   0      0.906      5564.75     450.5532      6065.93     697.9941  15.5428   0.1250     1405.195        10  7.71605e-07    1.258
        59    346.178   2004.701 100.2267616  +9.2732841    346.261   2004.770   0.0137   0.0137  -0.5   0      0.995     18559.27     604.4806     19749.63     830.7791  14.2611   0.0457     4662.742        18 1.388889e-06    1.149
        60   1758.374   2002.736 100.4078408  +9.2741908   1758.215   2002.580   0.1056   0.1052 -90.0   0      1.076     1883.492     318.5893     2856.891     726.4953  16.3603   0.2762     714.1172         5 3.858025e-07    1.650
        61   1521.919   2001.319 100.3769904  +9.2746757   1521.967   2001.234   0.0590   0.0588 -90.0   0      1.071     4139.133     427.4323     5194.508     726.4953  15.7111   0.1519     1308.016         9 6.944445e-07    1.229
        62    972.849   2000.987 100.3060629  +9.2744770    972.946   2000.925   0.0085   0.0085  89.0   0      0.898     24005.73     637.1785     24765.23     854.8647  14.0154   0.0375     8960.688        20  1.54321e-06    1.057
        63    116.108   2001.653 100.1982138  +9.2735978    116.152   2001.722   0.0620   0.0619 -89.9   0      1.168     4271.875     427.4323     6108.477     976.7761  15.5352   0.1737     1464.969         9 6.944445e-07    1.256
        64    919.503   1999.906 100.2992329  +9.2745451    919.606   1999.861   0.0652   0.0594   0.4   0      0.806     2934.406      348.997     2871.172     569.9098  16.3549   0.2156     884.2266         6  4.62963e-07    1.519
        65   1702.673   1998.233 100.4005293  +9.2748328   1702.684   1998.226   0.0406   0.0399  -0.7   0      0.890     4843.938     402.9871     5584.812     854.8647  15.6325   0.1662     1677.695         8 6.172839e-07    1.345
        66   2045.836   1995.060 100.4454205  +9.2741839   2045.905   1994.795   0.0107   0.0107  90.0  24      1.185     35109.72     793.2808     33882.51     934.2871  13.6751   0.0299     7079.898        31 2.391975e-06    1.372
        67    655.809   1997.188 100.2656800  +9.2745410    655.686   1997.229   0.0400   0.0392  -0.9   0      0.866     4924.688     402.9871     5295.414     621.0448  15.6903   0.1274     1403.125         8 6.172839e-07    1.178
        68    694.783   1996.569 100.2706156  +9.2746670    694.768   1996.525   0.1188   0.1186 -90.0   0      1.153     1672.367     318.5893     3015.609     493.5563  16.3016   0.1777     903.7344         5 3.858025e-07    1.684
        69      4.189   1995.196 100.1844554  +9.2744660      4.372   1995.260   0.0267   0.0267   0.0  16      1.063     10539.52     569.9098     11475.17     830.7791  14.8506   0.0786     2299.469        16 1.234568e-06    1.339
        70   1960.340   1994.256 100.4342028  +9.2746218   1960.458   1994.277   0.0095   0.0094   0.0   0      0.981     27055.53     668.2784     28216.95       878.29  13.8737   0.0338     6055.227        22 1.697531e-06    1.014
        71   1330.251   1993.551 100.3520734  +9.2756511   1330.237   1993.519   0.0044   0.0043 -90.0   0      0.915      53480.7     668.2784      52785.2      842.908  13.1937   0.0173     12187.05        22 1.697531e-06    1.024
        72    259.111   1994.810 100.2159167  +9.2744769    259.006   1994.778   0.0392   0.0368 -89.9   0      0.796     4821.023     402.9871     4307.273     793.2808  15.9145   0.2000     1465.406         8 6.172839e-07    1.227
        73    568.832   1993.525 100.2546893  +9.2748905    568.724   1993.734   0.0891   0.0891   0.5   0      1.137     3210.664     402.9871     3834.891     668.2784  16.0406   0.1892     837.5078         8 6.172839e-07    1.330
        74   1249.215   1992.300 100.3415894  +9.2757750   1249.284   1992.439   0.0473   0.0471  90.0   0      1.055     5630.664     472.5442     6434.312     753.9198  15.4787   0.1272     1177.008        11 8.487654e-07    1.066
        75   1359.174   1992.616 100.3558144  +9.2757678   1359.089   1992.729   0.0795   0.0757 -89.6   0      0.840     2279.305     318.5893     2407.477     493.5563  16.5461   0.2226     719.2109         5 3.858025e-07    1.567
        76    929.878   1991.562 100.3005403  +9.2755804    929.964   1991.711   0.0910   0.0907 -90.0   0      1.093     2840.797     376.9599     3368.555     637.1785  16.1814   0.2054     858.5938         7 5.401234e-07    1.455
        77     75.665   1989.621 100.1932334  +9.2751309     75.774   1989.708   0.0017   0.0017  89.7   0      0.982       160026     955.7678     159494.8     1027.419  11.9931   0.0070     41501.79        45 3.472222e-06    1.097
        78    168.330   1989.701 100.2046636  +9.2751022    168.472   1989.818   0.0240   0.0234  -0.0   0      0.943     10006.66     569.9098     10473.34     805.9741  14.9498   0.0836     2532.625        16 1.234568e-06    1.152
        79   1624.288   1988.719 100.3902393  +9.2760863   1624.141   1988.386   0.0484   0.0443  89.6   0      0.811     3904.609     376.9599     3643.406     587.4495  16.0962   0.1751     1171.484         7 5.401234e-07    1.384
        80   1177.393   1985.430 100.3322975  +9.2765672   1177.474   1985.341   0.0038   0.0037   0.1   0      0.936     66097.45     767.2645     66013.36     912.3008  12.9509   0.0150     14126.83        29 2.237654e-06    1.046
        81   1154.214   1984.094 100.3293073  +9.2767134   1154.673   1984.490   0.0008   0.0008  89.9   0      1.349     579687.8      1344.13     573260.9     1200.536  10.6041   0.0023     110304.7        89 6.867284e-06    1.458
        82   1389.033   1983.720 100.3596401  +9.2768407   1389.034   1983.696   0.0170   0.0170  90.0   0      1.132     20005.53     668.2784     19693.93     934.2871  14.2642   0.0515     3881.453        22 1.697531e-06    1.265
        83     85.753   1982.480 100.1944759  +9.2760302     85.864   1982.591   0.0019   0.0018  90.0   0      0.961     140542.8     889.7714     140455.7     987.1127  12.1312   0.0076     35687.64        39 3.009259e-06    1.055
        84   2025.030   1983.983 100.4425789  +9.2755798   2025.058   1983.993   0.0471   0.0471  -0.1   0      0.923     4389.172     427.4323     4661.609     652.9137  15.8287   0.1521     1423.258         9 6.944445e-07    1.088
        85   1767.487   1983.033 100.4088771  +9.2765156   1767.503   1983.066   0.0561   0.0561   0.0   0      1.394     6910.359     493.5564     9912.336     1274.357  15.0096   0.1396     1794.195        12 9.259259e-07    1.440
        86   1131.823   1982.822 100.3264210  +9.2768513   1131.867   1982.890   0.0034   0.0033   0.4   0      0.990     76931.31     793.2808     77417.22     923.3594  12.7779   0.0130     22012.86        31 2.391975e-06    1.048
        87    906.867   1983.218 100.2975811  +9.2765766    906.899   1983.165   0.0089   0.0088 -89.7   0      0.948      26426.4     652.9137     26968.48       878.29  13.9229   0.0354     8403.109        21  1.62037e-06    1.018
        88    500.686   1983.880 100.2461042  +9.2760174    500.764   1984.044   0.0562   0.0562  -0.0   0      1.193     5948.852     513.7097     6723.562     805.9741  15.4310   0.1302     1282.133        13 1.003086e-06    1.090
        89    824.027   1982.458 100.2870147  +9.2765704    824.060   1982.354   0.0323   0.0310  89.9   0      0.907      7064.68     450.5532     6845.258     668.2784  15.4115   0.1060     1942.898        10  7.71605e-07    1.355
        90    336.266   1981.624 100.2255188  +9.2761685    336.330   1981.683   0.0040   0.0040  -3.3   0      0.922     59682.19     767.2645     60296.34     901.1065  13.0493   0.0162     13787.69        29 2.237654e-06    1.006
        91     31.299   1979.969 100.1877831  +9.2763777     31.419   1979.994   0.0008   0.0008  -0.0   0      0.993     329881.9     1075.681     327553.8     997.3421  11.2118   0.0033     74050.05        57 4.398148e-06    1.084
        92   1203.339   1981.868 100.3356289  +9.2770161   1203.272   1981.941   0.0239   0.0227  -0.2   0      0.852     8810.656     493.5564     8157.508     697.9941  15.2211   0.0929      2557.43        12 9.259259e-07    1.196
        93   1720.724   1981.050 100.4027586  +9.2768487   1720.791   1981.123   0.0814   0.0814  -0.3   0      1.191     3163.148     376.9599     4601.578     697.9941  15.8427   0.1647     1122.453         7 5.401234e-07    1.095
        94   1339.477   1980.996 100.3532102  +9.2771694   1339.512   1980.997   0.0597   0.0502   0.0   0      0.773     2877.258      348.997     2968.867     569.9098  16.3185   0.2085     1011.867         6  4.62963e-07    1.488
        95   1351.331   1979.196 100.3547361  +9.2773877   1351.350   1979.132   0.0067   0.0065   0.2   0      0.893     32780.38     652.9137     33689.34      842.908  13.6813   0.0272     9085.773        21  1.62037e-06    1.038
        96    137.718   1980.656 100.2008821  +9.2762460    137.441   1980.854   0.0997   0.0995   0.0   0      1.170     2453.539     318.5893       4074.5     912.3008  15.9748   0.2432     930.6094         5 3.858025e-07    1.629
        97   1804.603   1976.398 100.4136717  +9.2772171   1804.711   1976.349   0.0007   0.0007 -89.4   0      0.930     364303.2     1121.869     361660.7     1046.991  11.1042   0.0031     88948.56        62 4.783951e-06    1.088
        98    366.020   1979.536 100.2292314  +9.2764482    365.980   1979.744   0.0995   0.0991  90.0   0      1.065     2409.984      348.997      3018.57     569.9098  16.3005   0.2050     643.8047         6  4.62963e-07    1.546
        99    682.698   1974.676 100.2690572  +9.2773598    682.812   1974.745   0.0005   0.0005  89.5   0      0.934     499658.1     1166.228     495263.4     1017.492  10.7629   0.0022     142335.3        67 5.169753e-06    1.037
       100    779.740   1975.850 100.2813696  +9.2773307    779.830   1975.969   0.0105   0.0104   0.1   0      0.896      20292.4     621.0448      20459.6      842.908  14.2228   0.0447     7032.289        19 1.466049e-06    1.115
       101    234.865   1976.163 100.2129050  +9.2768143    234.994   1976.088   0.0793   0.0792 -90.0   0      1.051     2917.711      348.997     3567.461     551.8127  16.1191   0.1680     928.5156         6  4.62963e-07    1.339
       102    110.847   1974.302 100.1975681  +9.2770551    110.897   1974.348   0.0093   0.0092 -90.0   0      0.980     27697.68     637.1785     28433.44     866.6564  13.8654   0.0331     7228.992        20  1.54321e-06    1.175
       103   1913.327   1973.160 100.4278531  +9.2772834   1913.301   1973.250   0.0458   0.0453   1.2   0      0.887     4280.359     427.4323     4728.453     945.0884  15.8132   0.2171     1224.633         9 6.944445e-07    1.224
       104   1212.745   1972.149 100.3368058  +9.2782013   1212.777   1972.108   0.0086   0.0085  -0.2   0      0.964     28125.66     668.2784     29362.49     889.7714  13.8305   0.0329     8777.125        22 1.697531e-06    1.033
       105   1814.329   1984.951 100.4150115  +9.2761755   1814.502   1985.174   0.1000   0.0999  -0.0   0      1.204     3088.453     376.9599     3717.648      842.908  16.0743   0.2462     729.7578         7 5.401234e-07    1.435
       106   1458.839   1970.764 100.3686243  +9.2783827   1458.921   1970.808   0.0321   0.0320  89.9   0      1.007     7965.219     493.5564     8241.922     740.3345  15.2099   0.0976     2369.391        12 9.259259e-07    1.090
       107    936.539   1969.518 100.3013423  +9.2782906    936.583   1969.586   0.0067   0.0067   7.5   0      0.909     33807.91     587.4495     34285.82     805.9741  13.6622   0.0255      8431.18        17 1.311728e-06    1.039
       108   1388.525   1967.918 100.3594983  +9.2787477   1388.548   1968.051   0.0066   0.0064  -0.0   0      0.954     39216.56     712.3872     39344.99     901.1065  13.5128   0.0249      10238.4        25 1.929012e-06    1.225
       109   1290.535   1968.007 100.3468270  +9.2787327   1290.644   1968.004   0.0135   0.0125  -0.0   0      0.840     14762.21     569.9098     14612.27     780.3811  14.5882   0.0580     4928.195        16 1.234568e-06    1.030
       110    990.127   1965.525 100.3081869  +9.2788355    990.145   1965.516   0.0021   0.0021 -90.0   0      0.932     118449.1     945.0884     116559.2     955.7678  12.3336   0.0089     26602.16        44 3.395062e-06    1.076
       111   1429.528   1965.183 100.3647958  +9.2790673   1429.611   1965.639   0.0775   0.0775   1.2   0      1.305     5690.828     493.5564      5607.43     923.3594  15.6281   0.1788     1109.219        12 9.259259e-07    1.821
       112    677.703   1963.915 100.2684125  +9.2786860    677.894   1963.915   0.0355   0.0352  10.8   0      0.732     3795.188     376.9599     3889.516     587.4495  16.0253   0.1640     1637.859         7 5.401234e-07    1.146
       113    163.719   1963.986 100.2040952  +9.2783455    163.948   1964.062   0.0323   0.0321 -64.4   0      0.648     3008.891     376.9599     2968.211     587.4495  16.3188   0.2149     1656.297         7 5.401234e-07    1.094
       114    187.572   1960.770 100.2070453  +9.2787487    187.708   1960.772   0.0093   0.0093   0.6   0      0.927     26095.66     637.1785     25722.47     854.8647  13.9742   0.0361     7322.062        20  1.54321e-06    1.146
       115   1582.953   1962.003 100.3846903  +9.2793367   1582.931   1962.045   0.0356   0.0355  -1.5   0      0.849     5200.664     427.4323     5254.062     652.9137  15.6988   0.1350     1784.898         9 6.944445e-07    1.043
       116   1304.090   1960.984 100.3485488  +9.2795860   1304.214   1960.950   0.0504   0.0500  -0.1   0      0.997     4622.164     427.4323     5123.086     652.9137  15.7262   0.1384     1444.461         9 6.944445e-07    1.012
       117    198.948   1958.897 100.2084535  +9.2789843    199.032   1958.915   0.0182   0.0181 -89.7   0      0.902     14691.47     652.9137     11305.09     780.3811  14.8668   0.0750     4018.359        21  1.62037e-06    1.148
       118    173.904   1959.911 100.2053546  +9.2788580    173.974   1959.977   0.0435   0.0435   3.4   0      0.897     4266.633     402.9871     4748.414     621.0448  15.8086   0.1420     1650.727         8 6.172839e-07    1.238
       119   1674.294   1956.149 100.3965335  +9.2799076   1674.294   1956.089   0.0036   0.0036   0.1   0      0.969     70006.28     793.2808     71176.53     923.3594  12.8692   0.0141      18053.3        31 2.391975e-06    1.045
       120   1605.672   1956.978 100.3876127  +9.2799117   1605.706   1957.012   0.0514   0.0455  -0.1   0      0.764      3287.32     376.9599     3262.266     637.1785  16.2162   0.2121     1174.609         7 5.401234e-07    1.114
       121   1464.960   1955.655 100.3693392  +9.2801996   1465.027   1955.676   0.0035   0.0034 -90.0   0      0.943     70657.99     767.2645     71233.77     912.3008  12.8683   0.0139     19405.52        29 2.237654e-06    1.017
       122    804.306   1954.984 100.2844601  +9.2799315    804.285   1954.934   0.0892   0.0892 -80.3   0      2.054     8305.039     621.0448     12844.16     1611.948  14.7282   0.1363     1058.047        19 1.466049e-06    1.377
       123     28.134   1955.865 100.1873994  +9.2794353     28.468   1955.963   0.0121   0.0120  -0.0   0      1.124     26258.28     697.9941     27366.23     1046.991  13.9070   0.0415     6169.273        24 1.851852e-06    1.297
       124    467.627   1955.080 100.2419383  +9.2795780    467.777   1955.044   0.0264   0.0261  -0.1   0      0.948     8635.461     551.8128     9413.594     793.2808  15.0656   0.0915     2868.734        15 1.157407e-06    1.046
       125   1088.798   1966.455 100.3208399  +9.2788115   1088.843   1966.428   0.0398   0.0374 -89.8   0      0.852     5358.789     450.5532     5161.492     740.3345  15.7181   0.1558     1417.812        10  7.71605e-07    1.217
       126    202.614   1954.666 100.2089076  +9.2795172    202.630   1954.783   0.0267   0.0253   0.9   0      0.809     7125.922     513.7097     6802.922     753.9198  15.4183   0.1204     2190.273        13 1.003086e-06    1.164
       127    107.033   1953.500 100.1971009  +9.2796855    107.069   1953.554   0.0920   0.0919 -90.0   4      1.206     3833.773     450.5532     4142.883     697.9941  15.9567   0.1830     918.3594        10  7.71605e-07    1.613
